wavelength,ex,em,2p
300,0.0332,,
301,0.042,,
302,0.0483,,
303,0.0516,,
304,0.0519,,
305,0.0503,,
306,0.0479,,
307,0.046,,
308,0.0453,,
309,0.046,,
310,0.0477,,
311,0.0501,,
312,0.0525,,
313,0.0549,,
314,0.0569,,
315,0.0586,,
316,0.0601,,
317,0.0613,,
318,0.0625,,
319,0.0636,,
320,0.065,,
321,0.0668,,
322,0.0691,,
323,0.072,,
324,0.0754,,
325,0.0792,,
326,0.083,,
327,0.0867,,
328,0.0906,,
329,0.0945,,
330,0.0987,,
331,0.1035,,
332,0.109,,
333,0.1153,,
334,0.1226,,
335,0.1308,,
336,0.1396,,
337,0.149,,
338,0.1586,,
339,0.1684,,
340,0.1784,,
341,0.189,,
342,0.2009,,
343,0.2145,,
344,0.23,,
345,0.2471,,
346,0.2653,,
347,0.2836,,
348,0.3013,,
349,0.3182,,
350,0.3344,,
351,0.3505,,
352,0.3672,,
353,0.3849,,
354,0.4039,,
355,0.4245,,
356,0.447,,
357,0.472,,
358,0.5004,,
359,0.5329,,
360,0.5696,,
361,0.6096,,
362,0.651,,
363,0.6916,,
364,0.7289,,
365,0.7613,,
366,0.7881,,
367,0.8096,,
368,0.8267,,
369,0.8406,,
370,0.852,,
371,0.8615,,
372,0.8698,,
373,0.8777,,
374,0.8863,,
375,0.8968,,
376,0.9098,,
377,0.9251,,
378,0.9416,,
379,0.9576,,
380,0.9716,,
381,0.9825,,
382,0.9902,,
383,0.9954,,
384,0.9986,,
385,1.0,,
386,0.9992,,
387,0.9951,,
388,0.987,,
389,0.9747,,
390,0.9593,,
391,0.9425,,
392,0.926,,
393,0.9108,,
394,0.8965,,
395,0.8816,,
396,0.8642,,
397,0.8426,,
398,0.8169,,
399,0.7884,,
400,0.76,0.0251,
401,0.7342,0.0262,
402,0.713,0.0345,
403,0.6966,0.0424,
404,0.6838,0.0562,
405,0.6718,0.0683,
406,0.6579,0.0889,
407,0.6395,0.1086,
408,0.6152,0.1371,
409,0.5845,0.173,
410,0.5477,0.2018,
411,0.5057,0.2419,
412,0.4598,0.2885,
413,0.4114,0.3294,
414,0.362,0.3747,
415,0.3136,0.4085,
416,0.2676,0.4463,
417,0.2257,0.4902,
418,0.1889,0.5292,
419,0.1576,0.5669,
420,0.1317,0.5916,
421,0.1103,0.6113,
422,0.0927,0.6359,
423,0.0779,0.6482,
424,0.0653,0.6592,
425,0.0544,0.6673,
426,0.045,0.692,
427,0.0369,0.6753,
428,0.0301,0.7015,
429,0.0245,0.694,
430,0.0199,0.701,
431,0.0163,0.7011,
432,0.0136,0.7023,
433,0.0116,0.7176,
434,0.0101,0.7454,
435,0.0089,0.7655,
436,0.008,0.7625,
437,0.0072,0.7993,
438,0.0065,0.8133,
439,0.0059,0.843,
440,0.0053,0.8838,
441,0.0048,0.8827,
442,0.0044,0.8984,
443,0.0041,0.9164,
444,0.0038,0.9385,
445,0.0035,0.9435,
446,0.0033,0.9669,
447,0.003,0.9808,
448,0.0028,1.0,
449,0.0027,0.97,
450,0.0025,0.9527,
451,0.0023,0.9422,
452,0.0022,0.9528,
453,0.002,0.9233,
454,0.0019,0.9199,
455,0.0018,0.8975,
456,0.0017,0.8801,
457,0.0017,0.8666,
458,0.0018,0.8394,
459,0.0018,0.8113,
460,0.0019,0.8049,
461,0.002,0.7852,
462,0.0021,0.7598,
463,0.0022,0.7561,
464,0.0023,0.7434,
465,0.0024,0.7306,
466,0.0025,0.7065,
467,0.0026,0.7206,
468,,0.6933,
469,,0.6852,
470,,0.6698,
471,,0.6591,
472,,0.6695,
473,,0.6463,
474,,0.6452,
475,,0.6499,
476,,0.6303,
477,,0.6188,
478,,0.6108,
479,,0.6031,
480,,0.5979,
481,,0.5854,
482,,0.5869,
483,,0.5647,
484,,0.5504,
485,,0.5392,
486,,0.5216,
487,,0.5165,
488,,0.4933,
489,,0.4803,
490,,0.4829,
491,,0.4622,
492,,0.4528,
493,,0.4267,
494,,0.4259,
495,,0.4102,
496,,0.4011,
497,,0.4094,
498,,0.3897,
499,,0.3757,
500,,0.3637,
501,,0.3621,
502,,0.3621,
503,,0.3404,
504,,0.3319,
505,,0.3373,
506,,0.3246,
507,,0.314,
508,,0.3044,
509,,0.3035,
510,,0.2884,
511,,0.2905,
512,,0.2819,
513,,0.2722,
514,,0.2684,
515,,0.2565,
516,,0.2536,
517,,0.2494,
518,,0.2404,
519,,0.2416,
520,,0.2279,
521,,0.2196,
522,,0.2186,
523,,0.2109,
524,,0.2052,
525,,0.1972,
526,,0.1971,
527,,0.186,
528,,0.1809,
529,,0.177,
530,,0.1698,
531,,0.1698,
532,,0.1581,
533,,0.1556,
534,,0.1494,
535,,0.1467,
536,,0.1433,
537,,0.1394,
538,,0.1368,
539,,0.1295,
540,,0.125,
541,,0.1233,
542,,0.1183,
543,,0.1134,
544,,0.1111,
545,,0.1092,
546,,0.1069,
547,,0.1057,
548,,0.1023,
549,,0.097,
550,,0.0975,1.1294
551,,0.0923,1.1358
552,,0.0894,1.1297
553,,0.0871,1.111
554,,0.0856,1.0798
555,,0.0824,1.0214
556,,0.0815,0.9587
557,,0.0802,0.91
558,,0.077,0.8736
559,,0.0748,0.8489
560,,0.0729,0.8196
561,,0.0694,0.7764
562,,0.0686,0.728
563,,0.0655,0.6741
564,,0.065,0.626
565,,0.0634,0.5958
566,,0.0618,0.5715
567,,0.0607,0.5416
568,,0.0575,0.5149
569,,0.0574,0.4931
570,,0.0537,0.4782
571,,0.0509,0.4728
572,,0.051,0.4772
573,,0.0481,0.4881
574,,0.0464,0.4983
575,,0.0471,0.5003
576,,0.0447,0.4985
577,,0.0443,0.4958
578,,0.0427,0.4938
579,,0.0417,0.491
580,,0.0395,0.4871
581,,0.0366,0.4852
582,,0.0374,0.4855
583,,0.0361,0.4876
584,,0.0361,0.4927
585,,0.0344,0.5016
586,,0.0332,0.5087
587,,0.0333,0.5097
588,,0.0327,0.5097
589,,0.0311,0.5127
590,,0.0296,0.5147
591,,0.0291,0.5141
592,,0.0278,0.5092
593,,0.0266,0.4992
594,,0.0262,0.4849
595,,0.0256,0.4674
596,,0.0242,0.4499
597,,0.0235,0.4369
598,,0.0233,0.4265
599,,0.022,0.417
600,,0.0218,0.4091
601,,,0.4042
602,,,0.4003
603,,,0.3934
604,,,0.3864
605,,,0.3812
606,,,0.3771
607,,,0.3742
608,,,0.3733
609,,,0.3744
610,,,0.373
611,,,0.3643
612,,,0.3538
613,,,0.3458
614,,,0.3414
615,,,0.3425
616,,,0.3459
617,,,0.3478
618,,,0.3484
619,,,0.3492
620,,,0.3507
621,,,0.3505
622,,,0.3496
623,,,0.3512
624,,,0.3522
625,,,0.3494
626,,,0.3471
627,,,0.3492
628,,,0.3506
629,,,0.3482
630,,,0.3447
631,,,0.3414
632,,,0.3368
633,,,0.3316
634,,,0.3269
635,,,0.323
636,,,0.3193
637,,,0.3162
638,,,0.3133
639,,,0.3105
640,,,0.3085
641,,,0.3077
642,,,0.3067
643,,,0.3042
644,,,0.301
645,,,0.2976
646,,,0.2939
647,,,0.2896
648,,,0.2851
649,,,0.2815
650,,,0.2778
651,,,0.2723
652,,,0.2665
653,,,0.2626
654,,,0.259
655,,,0.2541
656,,,0.2491
657,,,0.2454
658,,,0.2408
659,,,0.2332
660,,,0.2257
661,,,0.2207
662,,,0.2162
663,,,0.2107
664,,,0.2055
665,,,0.2012
666,,,0.1969
667,,,0.1917
668,,,0.1871
669,,,0.1833
670,,,0.1804
671,,,0.1793
672,,,0.1799
673,,,0.1814
674,,,0.1834
675,,,0.1856
676,,,0.1876
677,,,0.1879
678,,,0.1891
679,,,0.1937
680,,,0.1994
681,,,0.204
682,,,0.2082
683,,,0.2113
684,,,0.2142
685,,,0.2187
686,,,0.2244
687,,,0.2292
688,,,0.2331
689,,,0.2379
690,,,0.243
691,,,0.247
692,,,0.2515
693,,,0.2562
694,,,0.2612
695,,,0.2677
696,,,0.2787
697,,,0.2951
698,,,0.3144
699,,,0.3358
700,,,0.3562
701,,,0.3709
702,,,0.384
703,,,0.3997
704,,,0.4147
705,,,0.427
706,,,0.4372
707,,,0.4465
708,,,0.453
709,,,0.4572
710,,,0.46
711,,,0.4592
712,,,0.4576
713,,,0.4603
714,,,0.4677
715,,,0.4789
716,,,0.4942
717,,,0.513
718,,,0.5312
719,,,0.5439
720,,,0.5585
721,,,0.5803
722,,,0.6044
723,,,0.6269
724,,,0.6482
725,,,0.6694
726,,,0.6884
727,,,0.6994
728,,,0.711
729,,,0.7327
730,,,0.7605
731,,,0.7958
732,,,0.831
733,,,0.8572
734,,,0.8695
735,,,0.858
736,,,0.8436
737,,,0.8509
738,,,0.8722
739,,,0.9044
740,,,0.933
741,,,0.9444
742,,,0.9412
743,,,0.9229
744,,,0.9089
745,,,0.9153
746,,,0.9308
747,,,0.952
748,,,0.9728
749,,,0.9874
750,,,0.9968
751,,,1.0
752,,,0.997
753,,,0.9886
754,,,0.9755
755,,,0.959
756,,,0.9424
757,,,0.9295
758,,,0.9201
759,,,0.9163
760,,,0.9143
761,,,0.9088
762,,,0.9011
763,,,0.8915
764,,,0.8824
765,,,0.8745
766,,,0.8697
767,,,0.8681
768,,,0.8694
769,,,0.8795
770,,,0.8915
771,,,0.8973
772,,,0.893
773,,,0.8694
774,,,0.8387
775,,,0.8198
776,,,0.8116
777,,,0.8087
778,,,0.8048
779,,,0.8043
780,,,0.795
781,,,0.7551
782,,,0.7128
783,,,0.6906
784,,,0.6798
785,,,0.6864
786,,,0.7051
787,,,0.7224
788,,,0.7234
789,,,0.6998
790,,,0.6654
791,,,0.6219
792,,,0.5847
793,,,0.5706
794,,,0.567
795,,,0.5684
796,,,0.5797
797,,,0.6047
798,,,0.6244
799,,,0.6145
800,,,0.5922
801,,,0.5772
802,,,0.5652
803,,,0.5501
804,,,0.536
805,,,0.5329
806,,,0.524
807,,,0.4958
808,,,0.4652
809,,,0.4391
810,,,0.4113
811,,,0.3848
812,,,0.3668
813,,,0.3601
814,,,0.3566
815,,,0.3519
816,,,0.3417
817,,,0.3183
818,,,0.2932
819,,,0.2749
820,,,0.2603
821,,,0.2506
822,,,0.2432
823,,,0.2347
824,,,0.2227
825,,,0.2039
826,,,0.1844
827,,,0.17
828,,,0.1593
829,,,0.151
830,,,0.1427
831,,,0.1316
832,,,0.1201
833,,,0.11
834,,,0.1033
835,,,0.1011
836,,,0.099
837,,,0.0934
838,,,0.0859
839,,,0.0771
840,,,0.0695
841,,,0.0645
842,,,0.0607
843,,,0.0574
844,,,0.0536
845,,,0.0483
846,,,0.0431
847,,,0.0384
848,,,0.034
849,,,0.0301
850,,,0.0268
851,,,0.0237
852,,,0.0211
853,,,0.019
854,,,0.0171
855,,,0.0151
856,,,0.0134
857,,,0.0117
858,,,0.0101
859,,,0.0088
860,,,0.0079
861,,,0.0071
862,,,0.0066
863,,,0.0064
864,,,0.0062
865,,,0.0056
866,,,0.0051
867,,,0.0048
868,,,0.0046
869,,,0.0044
870,,,0.0041
871,,,0.004
872,,,0.0038
873,,,0.0034
874,,,0.0032
875,,,0.003
876,,,0.0029
877,,,0.0028
878,,,0.0026
879,,,0.0025
880,,,0.0023
881,,,0.0022
882,,,0.0021
883,,,0.002
884,,,0.0019
885,,,0.0018
886,,,0.0017
887,,,0.0016
888,,,0.0015
889,,,0.0014
890,,,0.0013
891,,,0.0013
892,,,0.0012
893,,,0.0012
894,,,0.0011
895,,,0.001
896,,,0.001
897,,,0.0009
898,,,0.0009
899,,,0.0008
900,,,0.0008
901,,,0.0007
902,,,0.0006
903,,,0.0006
904,,,0.0006
905,,,0.0005
906,,,0.0005
907,,,0.0005
908,,,0.0005
909,,,0.0004
910,,,0.0004
911,,,0.0004
912,,,0.0004
913,,,0.0003
914,,,0.0003
915,,,0.0003
916,,,0.0003
917,,,0.0003
918,,,0.0003
919,,,0.0003
920,,,0.0003
921,,,0.0003
922,,,0.0003
923,,,0.0003
924,,,0.0002
925,,,0.0002
926,,,0.0002
927,,,0.0002
928,,,0.0002
929,,,0.0002
930,,,0.0002
931,,,0.0002
932,,,0.0002
933,,,0.0001
934,,,0.0001
935,,,0.0001
936,,,0.0001
937,,,0.0001
938,,,0.0001
939,,,0.0002
940,,,0.0002
941,,,0.0002
942,,,0.0002
943,,,0.0002
944,,,0.0002
945,,,0.0002
946,,,0.0002
947,,,0.0002
948,,,0.0002
949,,,0.0002
950,,,0.0002
951,,,0.0002
952,,,0.0002
953,,,0.0002
954,,,0.0002
955,,,0.0002
956,,,0.0002
957,,,0.0002
