wavelength,ex,em,2p
352,0.035,,
353,0.0364,,
354,0.0379,,
355,0.0395,,
356,0.0411,,
357,0.0427,,
358,0.0444,,
359,0.0462,,
360,0.0481,,
361,0.0501,,
362,0.0523,,
363,0.0546,,
364,0.057,,
365,0.0596,,
366,0.0623,,
367,0.065,,
368,0.0678,,
369,0.0705,,
370,0.0731,,
371,0.0756,,
372,0.0779,,
373,0.0802,,
374,0.0824,,
375,0.0845,,
376,0.0866,,
377,0.0888,,
378,0.0909,,
379,0.0931,,
380,0.0952,,
381,0.0973,,
382,0.0992,,
383,0.1009,,
384,0.1025,,
385,0.1042,,
386,0.1059,,
387,0.1078,,
388,0.11,,
389,0.1124,,
390,0.115,,
391,0.1174,,
392,0.1194,,
393,0.1212,,
394,0.1227,,
395,0.1242,,
396,0.1257,,
397,0.1274,,
398,0.1295,,
399,0.132,,
400,0.1349,,
401,0.1379,,
402,0.1408,,
403,0.1433,,
404,0.1454,,
405,0.1471,,
406,0.1487,,
407,0.1501,,
408,0.1516,,
409,0.1533,,
410,0.1554,,
411,0.1581,,
412,0.1617,,
413,0.166,,
414,0.1705,,
415,0.1746,,
416,0.1782,,
417,0.1816,,
418,0.1852,,
419,0.1896,,
420,0.195,,
421,0.2016,,
422,0.2089,,
423,0.2151,,
424,0.2189,,
425,0.2215,,
426,0.2246,,
427,0.23,,
428,0.2388,,
429,0.2485,,
430,0.2572,,
431,0.2648,,
432,0.2719,,
433,0.2789,,
434,0.2869,,
435,0.2972,,
436,0.3107,,
437,0.3283,,
438,0.3508,,
439,0.3729,,
440,0.3878,,
441,0.4071,,
442,0.4311,,
443,0.4455,,
444,0.4726,,
445,0.4976,,
446,0.5166,,
447,0.536,,
448,0.5537,,
449,0.5687,,
450,0.586,,
451,0.6053,,
452,0.6212,,
453,0.6338,,
454,0.6469,,
455,0.6635,,
456,0.6806,,
457,0.696,,
458,0.7089,,
459,0.7197,,
460,0.729,,
461,0.737,,
462,0.7435,,
463,0.7493,,
464,0.7604,,
465,0.7783,,
466,0.7869,,
467,0.7882,,
468,0.7893,,
469,0.7961,0.0049,
470,0.8119,0.0079,
471,0.8268,0.0106,
472,0.8354,0.0132,
473,0.8428,0.0161,
474,0.8535,0.0194,
475,0.8673,0.0234,
476,0.8788,0.0284,
477,0.8827,0.0348,
478,0.893,0.0429,
479,0.9187,0.0526,
480,0.9332,0.0635,
481,0.9396,0.0755,
482,0.9477,0.0891,
483,0.9618,0.1043,
484,0.9761,0.1207,
485,0.9838,0.1381,
486,0.9905,0.159,
487,0.9955,0.1899,
488,0.9958,0.2311,
489,0.9954,0.2653,
490,1.0,0.2923,
491,0.9812,0.3286,
492,0.948,0.374,
493,0.9349,0.4128,
494,0.9171,0.4474,
495,0.8943,0.4944,
496,0.8633,0.5573,
497,0.8505,0.6078,
498,0.7829,0.6574,
499,0.7466,0.7052,
500,0.7025,0.7507,
501,0.6802,0.8048,
502,0.6442,0.8333,
503,0.5867,0.8786,
504,0.5394,0.9255,
505,0.5149,0.9455,
506,0.4661,0.9694,
507,0.4217,0.9897,
508,0.3855,0.9977,
509,0.3515,1.0,
510,0.3147,0.992,
511,0.2803,0.9758,
512,0.2489,0.9473,
513,0.2215,0.9136,
514,0.2003,0.8898,
515,0.1807,0.8587,
516,0.1601,0.7997,
517,0.1402,0.7999,
518,0.1221,0.745,
519,0.1061,0.6803,
520,0.0925,0.6654,
521,0.0803,0.6209,
522,0.0688,0.5881,
523,0.0577,0.5646,
524,0.0479,0.5415,
525,0.0401,0.5149,
526,0.0341,0.4946,
527,0.0293,0.478,
528,0.025,0.4597,
529,0.0212,0.4432,
530,0.0177,0.4293,
531,0.0147,0.4172,
532,0.0121,0.4059,
533,0.0101,0.3941,
534,0.0085,0.3822,
535,0.0072,0.3712,
536,0.0061,0.3619,
537,0.0052,0.3543,
538,0.0043,0.3477,
539,0.0033,0.3401,
540,,0.331,
541,,0.3224,
542,,0.3154,
543,,0.3085,
544,,0.3,
545,,0.2902,
546,,0.2805,
547,,0.2715,
548,,0.2635,
549,,0.2558,
550,,0.2468,
551,,0.2355,
552,,0.224,
553,,0.2142,
554,,0.2058,
555,,0.1964,
556,,0.1844,
557,,0.1741,
558,,0.1675,
559,,0.161,
560,,0.1526,
561,,0.1439,
562,,0.1362,
563,,0.1301,
564,,0.125,
565,,0.1199,
566,,0.1143,
567,,0.1081,
568,,0.1022,
569,,0.0976,
570,,0.0938,
571,,0.09,
572,,0.0861,
573,,0.0823,
574,,0.0789,
575,,0.0758,
576,,0.073,
577,,0.0703,
578,,0.0677,
579,,0.0653,
580,,0.0631,
581,,0.0611,
582,,0.0591,
583,,0.0569,
584,,0.0546,
585,,0.0523,
586,,0.05,
587,,0.0479,
588,,0.0462,
589,,0.0446,
590,,0.0432,
591,,0.0419,
592,,0.0405,
593,,0.039,
594,,0.0375,
595,,0.036,
596,,0.0347,
597,,0.0335,
598,,0.0323,
599,,0.0311,
600,,0.0299,
601,,0.0285,
602,,0.027,
603,,0.0254,
604,,0.024,
605,,0.0226,
606,,0.0214,
607,,0.0203,
608,,0.0194,
609,,0.0186,
610,,0.0179,
611,,0.0172,
612,,0.0167,
613,,0.0161,
614,,0.0155,
615,,0.0149,
616,,0.0142,
617,,0.0134,
618,,0.0125,
619,,0.0116,
620,,0.0106,
621,,0.0095,
622,,0.0085,
623,,0.0076,
624,,0.0067,
625,,0.0058,
626,,0.0051,
627,,0.0046,
628,,0.0042,
629,,,
630,,,
631,,,
632,,,
633,,,
634,,,
635,,,
636,,,
637,,,
638,,,
639,,,
640,,,
641,,,
642,,,
643,,,
644,,,
645,,,
646,,,
647,,,
648,,,
649,,,
650,,,
651,,,
652,,,
653,,,
654,,,
655,,,
656,,,
657,,,
658,,,
659,,,
660,,,
661,,,
662,,,
663,,,
664,,,
665,,,
666,,,
667,,,
668,,,
669,,,
670,,,
671,,,
672,,,
673,,,
674,,,
675,,,
676,,,
677,,,
678,,,
679,,,
680,,,0.5466
681,,,0.4848
682,,,0.423
683,,,0.3613
684,,,0.2995
685,,,0.2646
686,,,0.2296
687,,,0.1947
688,,,0.1597
689,,,0.145
690,,,0.1302
691,,,0.1155
692,,,0.1008
693,,,0.0959
694,,,0.091
695,,,0.0862
696,,,0.0813
697,,,0.0791
698,,,0.0769
699,,,0.0747
700,,,0.0725
701,,,0.0716
702,,,0.0708
703,,,0.0699
704,,,0.0691
705,,,0.0695
706,,,0.0699
707,,,0.0703
708,,,0.0707
709,,,0.0719
710,,,0.073
711,,,0.0741
712,,,0.0753
713,,,0.0765
714,,,0.0776
715,,,0.0788
716,,,0.08
717,,,0.0817
718,,,0.0835
719,,,0.0853
720,,,0.0871
721,,,0.0915
722,,,0.0959
723,,,0.1002
724,,,0.1046
725,,,0.1072
726,,,0.1098
727,,,0.1124
728,,,0.1151
729,,,0.1159
730,,,0.1166
731,,,0.1174
732,,,0.1182
733,,,0.1188
734,,,0.1194
735,,,0.12
736,,,0.1206
737,,,0.1206
738,,,0.1206
739,,,0.1206
740,,,0.1206
741,,,0.1222
742,,,0.1238
743,,,0.1254
744,,,0.127
745,,,0.1297
746,,,0.1323
747,,,0.135
748,,,0.1377
749,,,0.1384
750,,,0.1391
751,,,0.1398
752,,,0.1405
753,,,0.1419
754,,,0.1433
755,,,0.1447
756,,,0.1461
757,,,0.1482
758,,,0.1503
759,,,0.1524
760,,,0.1546
761,,,0.1557
762,,,0.1569
763,,,0.1581
764,,,0.1593
765,,,0.1618
766,,,0.1644
767,,,0.167
768,,,0.1695
769,,,0.1718
770,,,0.174
771,,,0.1763
772,,,0.1786
773,,,0.1805
774,,,0.1824
775,,,0.1844
776,,,0.1863
777,,,0.1908
778,,,0.1952
779,,,0.1997
780,,,0.2041
781,,,0.2054
782,,,0.2066
783,,,0.2079
784,,,0.2091
785,,,0.2127
786,,,0.2162
787,,,0.2197
788,,,0.2233
789,,,0.2259
790,,,0.2285
791,,,0.2312
792,,,0.2338
793,,,0.2469
794,,,0.2599
795,,,0.273
796,,,0.286
797,,,0.2799
798,,,0.2738
799,,,0.2677
800,,,0.2616
801,,,0.2633
802,,,0.265
803,,,0.2667
804,,,0.2684
805,,,0.2698
806,,,0.2712
807,,,0.2725
808,,,0.2739
809,,,0.279
810,,,0.2841
811,,,0.2892
812,,,0.2943
813,,,0.2969
814,,,0.2995
815,,,0.3021
816,,,0.3047
817,,,0.3093
818,,,0.3139
819,,,0.3185
820,,,0.323
821,,,0.3278
822,,,0.3326
823,,,0.3374
824,,,0.3422
825,,,0.3482
826,,,0.3542
827,,,0.3602
828,,,0.3662
829,,,0.3825
830,,,0.3988
831,,,0.4151
832,,,0.4314
833,,,0.4323
834,,,0.4332
835,,,0.4341
836,,,0.4351
837,,,0.436
838,,,0.4369
839,,,0.4378
840,,,0.4387
841,,,0.4392
842,,,0.4396
843,,,0.4401
844,,,0.4405
845,,,0.4464
846,,,0.4523
847,,,0.4582
848,,,0.464
849,,,0.4708
850,,,0.4775
851,,,0.4843
852,,,0.4911
853,,,0.4963
854,,,0.5016
855,,,0.5069
856,,,0.5122
857,,,0.5214
858,,,0.5307
859,,,0.5399
860,,,0.5492
861,,,0.5559
862,,,0.5626
863,,,0.5693
864,,,0.576
865,,,0.5841
866,,,0.5922
867,,,0.6002
868,,,0.6083
869,,,0.6149
870,,,0.6214
871,,,0.628
872,,,0.6346
873,,,0.645
874,,,0.6554
875,,,0.6658
876,,,0.6763
877,,,0.6841
878,,,0.6919
879,,,0.6997
880,,,0.7076
881,,,0.7215
882,,,0.7355
883,,,0.7495
884,,,0.7635
885,,,0.7708
886,,,0.7781
887,,,0.7854
888,,,0.7928
889,,,0.8022
890,,,0.8117
891,,,0.8212
892,,,0.8306
893,,,0.8463
894,,,0.862
895,,,0.8776
896,,,0.8933
897,,,0.9085
898,,,0.9237
899,,,0.939
900,,,0.9542
901,,,0.9516
902,,,0.9491
903,,,0.9466
904,,,0.944
905,,,0.9508
906,,,0.9576
907,,,0.9644
908,,,0.9712
909,,,0.9662
910,,,0.9613
911,,,0.9563
912,,,0.9514
913,,,0.953
914,,,0.9546
915,,,0.9562
916,,,0.9578
917,,,0.9579
918,,,0.9581
919,,,0.9583
920,,,0.9584
921,,,0.9596
922,,,0.9608
923,,,0.962
924,,,0.9632
925,,,0.9719
926,,,0.9805
927,,,0.9892
928,,,0.9979
929,,,0.9984
930,,,0.9989
931,,,0.9995
932,,,1.0
933,,,0.9926
934,,,0.9852
935,,,0.9778
936,,,0.9704
937,,,0.9752
938,,,0.98
939,,,0.9848
940,,,0.9896
941,,,0.9888
942,,,0.9879
943,,,0.987
944,,,0.9861
945,,,0.9785
946,,,0.9708
947,,,0.9632
948,,,0.9555
949,,,0.9471
950,,,0.9388
951,,,0.9304
952,,,0.922
953,,,0.9105
954,,,0.8991
955,,,0.8876
956,,,0.8762
957,,,0.8741
958,,,0.8721
959,,,0.87
960,,,0.868
961,,,0.8601
962,,,0.8522
963,,,0.8444
964,,,0.8365
965,,,0.8218
966,,,0.8071
967,,,0.7925
968,,,0.7778
969,,,0.7741
970,,,0.7703
971,,,0.7666
972,,,0.7629
973,,,0.7565
974,,,0.7502
975,,,0.7438
976,,,0.7375
977,,,0.7293
978,,,0.7212
979,,,0.713
980,,,0.7048
981,,,0.6946
982,,,0.6843
983,,,0.674
984,,,0.6637
985,,,0.6549
986,,,0.646
987,,,0.6372
988,,,0.6283
989,,,0.6124
990,,,0.5965
991,,,0.5806
992,,,0.5647
993,,,0.5417
994,,,0.5186
995,,,0.4956
996,,,0.4725
997,,,0.4593
998,,,0.446
999,,,0.4327
1000,,,0.4195
1001,,,0.4077
1002,,,0.396
1003,,,0.3843
1004,,,0.3726
1005,,,0.3577
1006,,,0.3427
1007,,,0.3278
1008,,,0.3129
1009,,,0.2996
1010,,,0.2863
1011,,,0.273
1012,,,0.2596
1013,,,0.2469
1014,,,0.2342
1015,,,0.2215
1016,,,0.2088
1017,,,0.197
1018,,,0.1852
1019,,,0.1734
1020,,,0.1615
1021,,,0.1529
1022,,,0.1443
1023,,,0.1357
1024,,,0.1271
1025,,,0.1165
1026,,,0.106
1027,,,0.0954
1028,,,0.0848
1029,,,0.0789
1030,,,0.0729
1031,,,0.0669
1032,,,0.061
1033,,,0.0563
1034,,,0.0516
1035,,,0.0469
1036,,,0.0422
1037,,,0.0378
1038,,,0.0334
1039,,,0.029
1040,,,0.0246
1041,,,0.0225
1042,,,0.0205
1043,,,0.0185
1044,,,0.0165
1045,,,0.0148
1046,,,0.0131
1047,,,0.0114
1048,,,0.0096
1049,,,0.0088
1050,,,0.008
1051,,,0.0072
1052,,,0.0063
1053,,,0.0057
1054,,,0.0051
1055,,,0.0045
1056,,,0.0039
1057,,,0.0036
1058,,,0.0032
1059,,,0.0028
